Time (s), Voltage (V)
0.010008,0.002444
0.020012,0.002444
0.030012,-0.002444
0.040016,0.002444
0.050016,0.007331
0.06002,0.002444
0.070024,0.007331
0.080024,-0.002444
0.090032,0.012219
0.100036,0.007331
0.11004,0.002444
0.12004,0.002444
0.130044,0.002444
0.140048,-0.002444
0.150048,0.002444
0.160048,0.002444
0.170048,-0.002444
0.180048,0.002444
0.190056,0.002444
0.200056,0.002444
0.210056,0.002444
0.220056,-0.002444
0.230056,0.007331
0.240068,0.012219
0.250072,0.002444
0.260072,0.002444
0.270072,-0.002444
0.280072,-0.002444
0.290076,0.002444
0.30008,0.002444
0.310088,-0.007331
0.320092,-0.002444
0.330092,-0.007331
0.340096,-0.002444
0.350096,-0.002444
0.360096,-0.007331
0.3701,-0.007331
0.3801,-0.002444
0.390104,-0.007331
0.400108,-0.007331
0.410112,-0.012219
0.420116,-0.012219
0.43012,-0.002444
0.440124,-0.002444
0.450128,-0.002444
0.460128,-0.007331
0.470132,-0.002444
0.480136,-0.002444
0.490136,-0.002444
0.500136,-0.002444
0.510136,-0.002444
0.520136,0.002444
0.53014,-0.002444
0.54014,-0.002444
0.55014,0.002444
0.560144,-0.012219
0.570148,-0.002444
0.580148,-0.002444
0.590152,-0.002444
0.600156,0.002444
0.61016,-0.002444
0.620164,-0.007331
0.630172,0.002444
0.64018,-0.002444
0.65018,-0.002444
0.660188,0.002444
0.670188,-0.007331
0.680188,-0.002444
0.690192,0.002444
0.700192,-0.002444
0.710196,-0.002444
0.720196,0.002444
0.7302,-0.007331
0.740204,-0.002444
0.750212,0.007331
0.760212,-0.007331
0.770212,-0.002444
0.780216,-0.002444
0.790216,-0.002444
0.800216,0.002444
0.81022,-0.007331
0.82022,-0.002444
0.83022,-0.002444
0.84022,-0.007331
0.850224,-0.002444
0.860232,-0.002444
0.870232,-0.007331
0.880232,0.002444
0.890232,0.002444
0.900232,-0.002444
0.910236,-0.002444
0.92024,-0.007331
0.930244,-0.002444
0.940248,0.002444
0.950252,-0.007331
0.960256,-0.007331
0.970256,-0.007331
0.98026,-0.007331
0.99026,-0.002444
1.000268,-0.002444
1.010268,-0.012219
1.020268,-0.002444
1.030268,-0.012219
1.040272,-0.012219
1.050272,-0.002444
1.060276,-0.012219
1.070284,-0.007331
1.080292,-0.007331
1.090296,0.002444
1.1003,0.002444
1.110304,-0.007331
1.120308,-0.012219
1.130312,0.002444
1.140316,-0.007331
1.150316,-0.002444
1.160316,-0.002444
1.17032,-0.002444
1.180324,-0.007331
1.190336,-0.002444
1.200336,0.002444
1.210336,-0.012219
1.22034,-0.002444
1.230344,-0.007331
1.240348,-0.007331
1.250352,-0.002444
1.26036,-0.017107
1.270364,-0.007331
1.280368,-0.007331
1.290368,-0.007331
1.300368,-0.002444
1.310368,-0.002444
1.320368,-0.012219
1.330372,0.002444
1.340372,-0.007331
1.350376,-0.002444
1.36038,-0.007331
1.37038,-0.012219
1.380384,-0.007331
1.390388,0.007331
1.400388,-0.002444
1.410388,-0.007331
1.420392,-0.007331
1.430392,-0.012219
1.440396,-0.002444
1.450396,-0.007331
1.4604,-0.012219
1.470404,-0.012219
1.480404,-0.002444
1.490408,-0.012219
1.500408,-0.002444
1.510412,-0.017107
1.520412,-0.012219
1.530412,-0.007331
1.540416,-0.007331
1.550416,-0.012219
1.56042,-0.007331
1.57042,-0.021994
1.58042,-0.012219
1.590424,-0.012219
1.600428,-0.007331
1.610428,-0.012219
1.620428,-0.012219
1.630432,-0.007331
1.640432,-0.007331
1.650432,-0.007331
1.660432,-0.017107
1.670436,-0.007331
1.68044,-0.012219
1.690448,-0.012219
1.700448,-0.012219
1.710448,-0.017107
1.720452,-0.007331
1.730456,-0.012219
1.74046,-0.012219
1.750464,-0.007331
1.760464,-0.017107
1.770464,-0.017107
1.780464,-0.007331
1.790468,-0.012219
1.800468,-0.012219
1.810472,-0.012219
1.820476,-0.017107
1.83048,-0.007331
1.840484,-0.007331
1.850488,-0.012219
1.860492,-0.012219
1.870496,-0.007331
1.880496,-0.007331
1.890504,-0.007331
1.900504,-0.012219
1.910508,-0.012219
1.920508,-0.007331
1.930508,-0.012219
1.940512,-0.012219
1.950516,-0.007331
1.960516,-0.021994
1.970516,-0.012219
1.98052,-0.012219
1.99052,-0.017107
2.000524,-0.017107
2.010524,-0.012219
2.020524,-0.021994
2.030524,-0.017107
2.040524,-0.017107
2.050524,-0.017107
2.060528,-0.012219
2.070528,-0.017107
2.080532,-0.017107
2.090532,-0.012219
2.10054,-0.017107
2.11054,-0.017107
2.120544,-0.017107
2.130548,-0.017107
2.140548,-0.007331
2.150552,-0.012219
2.160556,-0.017107
2.17056,-0.012219
2.18056,-0.017107
2.19056,-0.007331
2.20056,-0.012219
2.210564,-0.021994
2.220568,-0.021994
2.230572,-0.017107
2.240572,-0.021994
2.250576,-0.017107
2.260576,-0.021994
2.27058,-0.026882
2.28058,-0.021994
2.290588,-0.017107
2.300592,-0.026882
2.310596,-0.017107
2.320596,-0.021994
2.3306,-0.017107
2.3406,-0.017107
2.3506,-0.017107
2.360604,-0.026882
2.370604,-0.021994
2.380604,-0.017107
2.390604,-0.017107
2.400608,-0.012219
2.410612,-0.021994
2.42062,-0.017107
2.43062,-0.012219
2.440624,-0.012219
2.450628,-0.012219
2.460636,-0.017107
2.470644,-0.017107
2.480648,-0.012219
2.490652,-0.017107
2.500656,-0.017107
2.51066,-0.007331
2.52066,-0.017107
2.530664,-0.017107
2.540668,-0.012219
2.550672,-0.017107
2.560672,-0.012219
2.570676,-0.012219
2.580676,-0.017107
2.59068,-0.012219
2.600684,-0.012219
2.610684,-0.021994
2.620684,-0.012219
2.630684,-0.017107
2.640688,-0.012219
2.650688,-0.012219
2.660692,-0.021994
2.6707,-0.017107
2.680708,-0.017107
2.690708,-0.017107
2.700708,-0.012219
2.710708,-0.012219
2.720712,-0.017107
2.730712,-0.012219
2.740716,-0.007331
2.750716,-0.017107
2.760716,-0.012219
2.770716,-0.012219
2.780724,-0.021994
2.790724,-0.007331
2.800728,-0.017107
2.810732,-0.021994
2.820736,-0.017107
2.83074,-0.021994
2.840744,-0.007331
2.850744,-0.017107
2.860744,-0.021994
2.870752,-0.017107
2.880756,-0.017107
2.89076,-0.017107
2.900764,-0.012219
2.910764,-0.021994
2.920764,-0.017107
2.930772,-0.012219
2.940772,-0.017107
2.950776,-0.017107
2.960776,-0.012219
2.97078,-0.012219
2.98078,-0.017107
2.99078,-0.012219
3.00078,-0.021994
3.01078,-0.017107
3.020784,-0.012219
3.030788,-0.012219
3.040788,-0.007331
3.050796,-0.017107
3.060796,-0.021994
3.070796,-0.012219
3.0808,-0.017107
3.090808,-0.007331
3.100808,-0.012219
3.110812,-0.026882
3.120812,-0.017107
3.13082,-0.007331
3.14082,-0.017107
3.15082,-0.012219
3.160824,-0.021994
3.170824,-0.017107
3.180828,-0.017107
3.190832,-0.012219
3.200836,-0.021994
3.210836,-0.012219
3.22084,-0.017107
3.23084,-0.021994
3.240844,-0.012219
3.250852,-0.021994
3.260864,-0.012219
3.270868,-0.007331
3.280868,-0.007331
3.290868,-0.012219
3.300872,-0.012219
3.310872,-0.021994
3.320872,-0.007331
3.330872,-0.017107
3.340872,-0.017107
3.350876,-0.012219
3.360876,-0.017107
3.37088,-0.012219
3.380888,-0.002444
3.390892,-0.012219
3.400892,-0.017107
3.410892,-0.017107
3.420896,-0.017107
3.430896,-0.017107
3.4409,-0.017107
3.450904,-0.026882
3.460908,-0.021994
3.470908,-0.021994
3.480908,-0.021994
3.490908,-0.017107
3.500908,-0.021994
3.510908,-0.026882
3.520912,-0.017107
3.530916,-0.017107
3.540916,-0.017107
3.55092,-0.017107
3.560924,-0.026882
3.570924,-0.017107
3.580928,-0.017107
3.590928,-0.021994
3.600932,-0.017107
3.610936,-0.017107
3.62094,-0.021994
3.63094,-0.017107
3.64094,-0.017107
3.65094,-0.017107
3.66094,-0.017107
3.67094,-0.017107
3.68094,-0.017107
3.690948,-0.017107
3.700952,-0.017107
3.710956,-0.012219
3.720964,-0.007331
3.730964,-0.021994
3.740972,-0.012219
3.750972,-0.007331
3.760976,-0.012219
3.770976,-0.012219
3.78098,-0.017107
3.79098,-0.021994
3.800984,-0.012219
3.810988,-0.017107
3.820992,-0.017107
3.830996,-0.017107
3.841,-0.017107
3.851,-0.012219
3.861004,-0.007331
3.871004,-0.012219
3.881008,-0.002444
3.891008,-0.012219
3.901012,-0.021994
3.911016,-0.017107
3.92102,-0.017107
3.931024,-0.017107
3.941028,-0.012219
3.951028,-0.021994
3.961028,-0.012219
3.971028,-0.017107
3.981032,-0.017107
3.991032,-0.012219
4.001032,-0.012219
4.011036,-0.021994
4.02104,-0.017107
4.031044,-0.012219
4.041044,-0.026882
4.051048,-0.017107
4.061052,-0.017107
4.071052,-0.026882
4.081056,-0.012219
4.091056,-0.021994
4.10106,-0.026882
4.11106,-0.026882
4.121064,-0.021994
4.131068,-0.021994
4.141072,-0.026882
4.151076,-0.026882
4.161076,-0.026882
4.171076,-0.026882
4.18108,-0.026882
4.191084,-0.021994
4.201088,-0.026882
4.211088,-0.021994
4.221092,-0.012219
4.231092,-0.017107
4.2411,-0.017107
4.251104,-0.017107
4.261108,-0.021994
4.271112,-0.017107
4.281112,-0.007331
4.291116,-0.026882
4.30112,-0.017107
4.31112,-0.007331
4.32112,-0.021994
4.331124,-0.012219
4.341124,-0.017107
4.351132,-0.021994
4.361136,-0.012219
4.371136,-0.017107
4.381136,-0.012219
4.39114,-0.017107
4.401148,-0.021994
4.411152,-0.017107
4.421152,-0.012219
4.431156,-0.012219
4.44116,-0.012219
4.451164,-0.017107
4.461168,-0.021994
4.471168,-0.012219
4.481172,-0.012219
4.491176,-0.021994
4.50118,-0.012219
4.511184,-0.017107
4.521184,-0.012219
4.531184,-0.012219
4.541184,-0.021994
4.551188,-0.017107
4.561192,-0.012219
4.571192,-0.012219
4.581192,-0.007331
4.591196,-0.017107
4.6012,-0.017107
4.611204,-0.012219
4.621204,-0.017107
4.631212,-0.012219
4.64122,-0.007331
4.65122,-0.017107
4.66122,-0.012219
4.67122,-0.012219
4.68122,-0.012219
4.691224,-0.017107
4.701228,-0.017107
4.711228,-0.021994
4.721228,-0.012219
4.731228,-0.007331
4.741232,-0.021994
4.751232,-0.012219
4.761232,-0.012219
4.771236,-0.017107
4.781244,-0.012219
4.791248,-0.017107
4.801252,-0.017107
4.81126,-0.012219
4.821264,-0.012219
4.831264,0.002444
4.841264,-0.012219
4.851264,-0.017107
4.861264,-0.012219
4.871268,-0.012219
4.881272,-0.012219
4.89128,-0.012219
4.901284,-0.021994
4.911292,-0.021994
4.921296,-0.017107
4.9313,-0.017107
4.9413,-0.021994
4.951304,-0.017107
4.961304,-0.017107
4.971308,-0.012219
4.981308,-0.012219
4.991308,-0.021994
5.001316,-0.021994
5.01132,-0.017107
5.02132,-0.017107
5.03132,-0.012219
5.041324,-0.012219
5.051324,-0.021994
5.061328,-0.007331
5.071328,-0.017107
5.081332,-0.017107
5.09134,-0.007331
5.10134,-0.012219
5.111344,-0.017107
5.121348,-0.012219
5.131352,-0.012219
5.141352,-0.017107
5.151352,-0.017107
5.161352,-0.021994
5.171352,-0.017107
5.181352,-0.017107
5.19136,-0.026882
5.201364,-0.007331
5.211368,-0.021994
5.221368,-0.017107
5.231372,-0.012219
5.241376,-0.017107
5.251376,-0.017107
5.261376,-0.012219
5.271376,-0.017107
5.281384,-0.012219
5.291384,-0.017107
5.301384,-0.021994
5.311384,-0.017107
5.321384,-0.007331
5.331396,-0.017107
5.341404,-0.017107
5.351404,-0.021994
5.361408,-0.017107
5.371408,-0.017107
5.381412,-0.021994
5.391416,-0.021994
5.40142,-0.007331
5.411424,-0.017107
5.421424,-0.007331
5.431432,-0.017107
5.441432,-0.021994
5.451436,-0.012219
5.46144,-0.017107
5.471444,-0.012219
5.481448,-0.007331
5.491448,-0.012219
5.501452,-0.026882
5.511452,-0.012219
5.521452,-0.041544
5.531452,-0.046432
5.54146,-0.05132
5.551464,-0.056207
5.561464,-0.05132
5.571468,-0.041544
5.581468,-0.05132
5.591468,-0.046432
5.601468,-0.046432
5.611472,-0.041544
5.621476,-0.036657
5.631476,-0.031769
5.64148,-0.041544
5.65148,-0.021994
5.66148,-0.021994
5.67148,-0.017107
5.681484,-0.017107
5.691488,-0.026882
5.701492,-0.017107
5.711496,-0.012219
5.721496,-0.021994
5.731496,-0.012219
5.741496,-0.021994
5.7515,-0.017107
5.7615,-0.012219
5.7715,-0.012219
5.781504,-0.017107
5.791504,-0.017107
5.801504,-0.021994
5.811504,-0.021994
5.821504,-0.007331
5.831504,-0.017107
5.841504,-0.021994
5.851508,-0.017107
5.861508,-0.012219
5.871516,-0.017107
5.881516,-0.012219
5.89152,-0.017107
5.901524,-0.012219
5.911524,-0.012219
5.921528,-0.017107
5.931532,-0.012219
5.94154,-0.021994
5.951544,-0.021994
5.961548,-0.017107
5.971548,-0.017107
5.981552,-0.017107
5.991552,-0.012219
6.001552,-0.021994
6.011556,-0.017107
6.021556,-0.017107
6.031556,-0.021994
6.04156,-0.021994
6.051564,-0.017107
6.061568,-0.017107
6.071572,-0.017107
6.081576,-0.012219
6.09158,-0.021994
6.10158,-0.007331
6.11158,-0.012219
6.121584,-0.012219
6.131584,-0.012219
6.141584,-0.021994
6.151592,-0.007331
6.161592,-0.012219
6.171592,-0.012219
6.181592,-0.007331
6.191592,-0.017107
6.201592,-0.017107
6.211592,-0.012219
6.221592,-0.012219
6.231592,-0.017107
6.241592,-0.012219
6.251592,-0.012219
6.261592,-0.012219
6.271592,-0.007331
6.281596,-0.012219
6.2916,-0.007331
6.301604,-0.007331
6.311604,-0.012219
6.321604,-0.012219
6.331608,-0.012219
6.341612,-0.012219
6.351616,-0.007331
6.36162,-0.012219
6.371624,-0.007331
6.381628,-0.002444
6.391632,-0.017107
6.40164,-0.012219
6.411644,-0.012219
6.421644,-0.017107
6.431648,-0.012219
6.441648,-0.017107
6.451652,-0.021994
6.461656,-0.007331
6.47166,-0.012219
6.48166,-0.017107
6.491664,-0.007331
6.501668,-0.012219
6.511676,-0.007331
6.521676,-0.002444
6.53168,-0.012219
6.541684,-0.012219
6.551688,-0.002444
6.561688,-0.012219
6.571692,-0.002444
6.581696,-0.007331
6.5917,-0.017107
6.6017,-0.007331
6.6117,-0.007331
6.6217,-0.012219
6.6317,-0.007331
6.6417,-0.012219
6.651704,-0.012219
6.661708,-0.007331
6.671712,-0.012219
6.681716,-0.012219
6.69172,-0.012219
6.701724,-0.012219
6.711728,-0.012219
6.721732,-0.007331
6.731732,-0.017107
6.741736,-0.012219
6.751736,-0.002444
6.76174,-0.012219
6.77174,-0.002444
6.78174,-0.012219
6.791744,-0.021994
6.801744,-0.007331
6.811744,-0.012219
6.821744,-0.002444
6.831744,-0.007331
6.841748,-0.012219
6.851752,-0.012219
6.861752,-0.007331
6.871756,-0.017107
6.881756,-0.012219
6.89176,-0.012219
6.901764,-0.012219
6.911764,-0.007331
6.921764,-0.012219
6.931764,-0.017107
6.941764,-0.007331
6.951772,-0.017107
6.961772,-0.012219
6.971776,-0.002444
6.98178,-0.017107
6.991784,-0.017107
7.001788,-0.007331
7.011792,-0.012219
7.0218,-0.012219
7.031804,-0.012219
7.041804,-0.021994
7.051804,-0.017107
7.061808,-0.012219
7.071808,-0.007331
7.081808,-0.012219
7.091812,-0.017107
7.101812,-0.012219
7.111816,-0.007331
7.121816,-0.012219
7.131816,-0.012219
7.141828,-0.012219
7.151828,-0.017107
7.161832,-0.007331
7.171836,-0.017107
7.18184,-0.012219
7.191844,-0.012219
7.201848,-0.012219
7.211852,-0.012219
7.221856,-0.002444
7.23186,-0.017107
7.24186,-0.017107
7.25186,-0.007331
7.261864,-0.012219
7.271872,-0.012219
7.281876,-0.012219
7.29188,-0.017107
7.30188,-0.012219
7.311888,-0.007331
7.321892,-0.012219
7.331896,-0.007331
7.3419,-0.012219
7.351904,-0.017107
7.361908,-0.007331
7.371912,-0.012219
7.381912,-0.012219
7.391912,-0.017107
7.401916,-0.017107
7.411916,-0.012219
7.42192,-0.017107
7.43192,-0.021994
7.44192,-0.012219
7.451924,-0.007331
7.461924,-0.012219
7.471928,-0.012219
7.481936,-0.012219
7.491936,-0.012219
7.50194,-0.002444
7.511944,-0.012219
7.521944,-0.012219
7.531944,-0.012219
7.541948,-0.012219
7.551952,-0.007331
7.561956,-0.007331
7.571956,-0.017107
7.58196,-0.012219
7.591964,-0.012219
7.601968,-0.012219
7.611972,-0.007331
7.621976,-0.007331
7.63198,-0.017107
7.641984,-0.012219
7.651988,-0.012219
7.661992,-0.012219
7.671992,0.002444
7.681992,-0.012219
7.691996,-0.012219
7.701996,0.002444
7.711996,-0.012219
7.722,-0.012219
7.732004,-0.007331
7.742012,-0.017107
7.752016,-0.007331
7.76202,-0.012219
7.772024,-0.021994
7.782024,-0.017107
7.792028,-0.017107
7.802028,-0.021994
7.812028,-0.017107
7.822036,-0.026882
7.83204,-0.017107
7.84204,-0.017107
7.852044,-0.017107
7.862048,-0.021994
7.872056,-0.012219
7.88206,-0.021994
7.89206,-0.017107
7.90206,-0.012219
7.91206,-0.017107
7.922064,-0.017107
7.932068,-0.017107
7.942072,-0.017107
7.952072,-0.007331
7.96208,-0.012219
7.97208,-0.012219
7.98208,-0.007331
7.99208,-0.012219
8.002084,-0.017107
8.012088,-0.007331
8.022089,-0.021994
8.032093,-0.007331
8.042097,-0.012219
8.052097,-0.017107
8.062101,-0.007331
8.0721,-0.017107
8.082104,-0.017107
8.092108,-0.012219
8.102112,-0.012219
8.112116,-0.007331
8.122117,-0.007331
8.132117,-0.017107
8.142121,-0.012219
8.15212,-0.007331
8.162129,-0.012219
8.172128,-0.012219
8.182128,-0.017107
8.192129,-0.017107
8.202133,-0.007331
8.212137,-0.012219
8.222145,-0.017107
8.232145,-0.007331
8.242149,-0.012219
8.252153,-0.012219
8.262152,-0.007331
8.272156,-0.017107
8.282156,-0.017107
8.292157,-0.007331
8.302161,-0.017107
8.312165,-0.012219
8.322173,-0.017107
8.332177,-0.017107
8.342181,-0.012219
8.352192,-0.012219
8.362193,-0.012219
8.372193,-0.012219
8.382192,-0.012219
8.392196,-0.017107
8.402196,-0.012219
8.4122,-0.007331
8.422201,-0.007331
8.432205,-0.002444
8.442205,-0.007331
8.452208,-0.012219
8.462208,-0.012219
8.472208,-0.021994
8.482216,-0.012219
8.492217,-0.017107
8.502221,-0.012219
8.512225,-0.012219
8.522229,-0.012219
8.532233,-0.017107
8.542237,-0.007331
8.552241,-0.012219
8.562249,-0.012219
8.572249,-0.007331
8.582248,-0.017107
8.592248,-0.012219
8.602249,-0.007331
8.612253,-0.007331
8.622253,-0.012219
8.632256,-0.012219
8.64226,-0.017107
8.65226,-0.007331
8.662264,-0.017107
8.672268,-0.017107
8.682276,-0.012219
8.692276,-0.012219
8.70228,-0.017107
8.712281,-0.007331
8.722285,-0.017107
8.732284,-0.017107
8.742284,-0.007331
8.752288,-0.012219
8.762292,-0.002444
8.772293,-0.017107
8.782293,-0.017107
8.792292,-0.017107
8.802296,-0.012219
8.812296,-0.012219
8.8223,-0.012219
8.832304,-0.017107
8.842305,-0.017107
8.852305,-0.012219
8.862304,-0.002444
8.872308,-0.017107
8.882312,-0.012219
8.89232,-0.017107
8.902324,-0.017107
8.912328,-0.007331
8.922332,-0.021994
8.932332,-0.012219
8.942333,-0.012219
8.952332,-0.012219
8.962336,-0.007331
8.972336,-0.012219
8.98234,-0.012219
8.992344,-0.012219
9.002348,-0.012219
9.012349,-0.007331
9.022349,-0.012219
9.032353,-0.021994
9.042352,-0.017107
9.052356,-0.002444
9.062356,-0.017107
9.07236,-0.017107
9.082361,-0.012219
9.092365,-0.017107
9.102369,-0.007331
9.112373,-0.017107
9.122372,-0.021994
9.132372,-0.012219
9.142376,-0.012219
9.15238,-0.012219
9.162384,-0.007331
9.172385,-0.021994
9.182389,-0.017107
9.192388,-0.012219
9.202397,-0.012219
9.212401,-0.012219
9.222409,-0.017107
9.232408,-0.017107
9.242408,-0.012219
9.252408,-0.012219
9.262409,-0.012219
9.272408,-0.002444
9.282408,-0.012219
9.292416,-0.017107
9.30242,-0.012219
9.312424,-0.012219
9.322424,-0.017107
9.332425,-0.017107
9.342429,-0.017107
9.352433,-0.012219
9.362432,-0.012219
9.372436,-0.021994
9.38244,-0.002444
9.392444,-0.012219
9.402444,-0.012219
9.412448,-0.012219
9.422452,-0.017107
9.432453,-0.012219
9.442457,-0.012219
9.452461,-0.007331
9.462465,-0.012219
9.472469,-0.012219
9.482473,-0.017107
9.492477,-0.012219
9.502476,-0.017107
9.512476,-0.017107
9.522477,-0.017107
9.532477,-0.012219
9.542476,-0.017107
9.552484,-0.007331
9.562488,-0.017107
9.572492,-0.017107
9.582496,-0.017107
9.592496,-0.021994
9.602497,-0.007331
9.612497,-0.017107
9.622501,-0.026882
9.632505,-0.017107
9.642504,-0.021994
9.652504,-0.026882
9.662512,-0.021994
9.672516,-0.026882
9.68252,-0.026882
9.692521,-0.021994
9.702521,-0.021994
9.71252,-0.021994
9.72252,-0.021994
9.732521,-0.026882
9.742521,-0.021994
9.752525,-0.021994
9.762529,-0.026882
9.772528,-0.026882
9.782532,-0.017107
9.792532,-0.026882
9.802536,-0.012219
9.812537,-0.017107
9.822537,-0.021994
9.832536,-0.017107
9.84254,-0.017107
9.85254,-0.021994
9.862541,-0.007331
9.872541,-0.026882
9.88254,-0.017107
9.89254,-0.017107
9.902541,-0.012219
9.912541,-0.017107
9.92254,-0.012219
9.932544,-0.017107
9.942548,-0.012219
9.952548,-0.012219
9.962549,-0.021994
9.972553,-0.017107
9.982557,-0.012219
9.992561,-0.012219
10.00256,-0.012219
10.012564,-0.021994
10.022564,-0.021994
10.032565,-0.007331
10.042565,-0.017107
10.052564,-0.012219
10.062564,-0.012219
10.072565,-0.021994
10.082565,-0.017107
10.092573,-0.017107
10.102573,-0.017107
10.112572,-0.017107
